Time: 13:02; Datum: 17.07.2015
Sample Area [sqmm]: 0,000
Sample Thickness [mm]: 0,000
Voltage Level [V]: 0,010


F[Hz]		Z[Ohm]		Theta		Temperatur[°C]
40,000000	641,797300	0,043361
41,191000	642,507300	0,066575
42,417000	641,957300	0,028416
43,680000	642,502000	0,053400
44,981000	642,718400	0,064425
46,320000	642,881100	-0,003878
47,699000	642,007400	-0,020478
49,120000	641,707600	-0,030963
50,582000	642,729200	-0,048588
52,088000	641,551100	-0,090168
53,639000	640,971600	-0,066249
55,236000	641,292400	-0,069249
56,881000	641,537700	-0,088228
58,575000	640,977700	-0,099097
60,319000	641,872700	-0,069094
62,115000	641,610800	-0,049181
63,964000	640,659800	-0,038521
65,869000	641,337300	-0,041436
67,830000	641,526400	-0,046059
69,849000	641,463700	-0,020996
71,929000	641,393300	-0,010996
74,071000	641,965800	-0,015349
76,276000	641,836400	0,004723
78,547000	641,847200	-0,001600
80,886000	641,649000	0,022403
83,295000	641,589400	0,030412
85,775000	641,718600	0,018516
88,329000	641,912100	0,013559
90,959000	641,577700	0,029329
93,667000	641,924300	0,017084
96,456000	641,776300	0,044899
99,328000	641,873300	0,004339
102,285000	641,562600	0,029186
105,331000	641,455700	0,031271
108,467000	641,635600	0,026157
111,697000	641,316900	0,009122
115,022000	641,440000	0,018969
118,447000	641,395600	0,026974
121,974000	641,241600	0,019516
125,606000	640,871500	-0,016314
129,345000	640,584200	-0,048071
133,197000	641,242600	-0,063817
137,163000	641,091100	-0,064256
141,247000	641,202100	-0,024043
145,452000	639,958200	-0,096630
149,783000	640,743800	-0,149230
154,243000	640,118200	-0,120522
158,835000	639,320200	-0,069772
163,565000	639,485400	-0,140096
168,435000	639,940400	-0,099676
173,450000	640,194300	-0,119788
178,614000	640,157200	-0,107792
183,932000	639,969100	-0,128578
189,409000	640,487900	-0,123717
195,049000	640,065200	-0,135087
200,856000	640,267000	-0,148184
206,837000	639,856600	-0,117297
212,995000	639,821100	-0,134845
219,337000	640,407500	-0,146136
225,868000	639,942400	-0,145350
232,593000	640,280800	-0,175679
239,518000	640,512600	-0,176249
246,650000	640,470900	-0,144715
253,994000	640,073800	-0,096786
261,557000	640,167500	-0,142405
269,344000	640,642600	-0,130513
277,364000	640,570100	-0,110697
285,623000	640,497100	-0,111942
294,127000	640,722600	-0,115704
302,884000	640,661100	-0,115069
311,903000	640,912200	-0,139947
321,190000	640,270300	-0,102508
330,753000	640,448400	-0,108116
340,601000	640,973600	-0,098800
350,742000	640,828400	-0,101989
361,186000	640,818500	-0,105984
371,940000	640,763300	-0,094271
383,014000	640,670600	-0,097375
394,419000	640,319500	-0,060168
406,162000	640,809100	-0,072984
418,256000	640,955700	-0,092756
430,709000	641,430800	-0,037960
443,534000	640,924400	-0,073364
456,740000	641,733000	-0,078703
470,339000	641,575200	-0,017577
484,343000	641,550700	-0,059097
498,765000	641,549400	-0,019202
513,615000	641,015200	-0,053386
528,908000	641,437600	-0,029388
544,656000	641,604300	-0,020448
560,873000	641,273600	-0,041367
577,573000	641,419500	-0,017985
594,770000	641,331200	-0,037485
612,480000	641,647600	-0,043879
630,716000	641,528300	-0,047850
649,495000	641,815800	-0,061303
668,834000	641,840600	-0,071921
688,749000	641,431100	-0,067306
709,256000	641,440700	-0,076167
730,374000	640,842700	-0,116913
752,121000	641,478100	-0,106569
774,515000	641,363500	-0,099166
797,576000	641,133700	-0,120906
821,324000	641,302200	-0,096941
845,778000	640,625100	-0,123880
870,961000	641,099000	-0,153370
896,894000	641,020900	-0,130891
923,599000	640,929300	-0,154255
951,099000	640,882300	-0,171663
979,418000	640,678800	-0,190271
1008,580000	641,032000	-0,195232
1038,610000	641,001200	-0,163261
1069,534000	640,852100	-0,188048
1101,380000	640,654200	-0,197615
1134,173000	640,431000	-0,188191
1167,943000	640,816800	-0,177929
1202,718000	640,978900	-0,155881
1238,529000	640,653300	-0,166480
1275,406000	640,599500	-0,186169
1313,381000	640,777000	-0,178551
1352,487000	640,507400	-0,168051
1392,757000	640,080000	-0,177162
1434,226000	640,570900	-0,176913
1476,930000	641,035000	-0,166968
1520,905000	640,732200	-0,152120
1566,190000	640,240100	-0,189406
1612,823000	640,383900	-0,167834
1660,844000	640,098100	-0,171447
1710,296000	639,942100	-0,163866
1761,219000	640,178300	-0,189801
1813,659000	639,422500	-0,153541
1867,661000	639,720700	-0,151194
1923,270000	639,533900	-0,157580
1980,535000	639,468600	-0,184729
2039,505000	639,546800	-0,169662
2100,231000	639,524700	-0,147449
2162,765000	639,344500	-0,129973
2227,161000	639,894200	-0,198887
2293,475000	639,315700	-0,147624
2361,762000	638,935900	-0,169547
2432,084000	638,932100	-0,181618
2504,498000	639,449900	-0,202374
2579,070000	639,801000	-0,199666
2655,861000	639,405200	-0,188528
2734,939000	639,193300	-0,205079
2816,371000	638,640700	-0,179228
2900,228000	638,812800	-0,202367
2986,582000	638,841200	-0,209387
3075,507000	638,584200	-0,215104
3167,080000	638,524200	-0,213152
3261,379000	638,901600	-0,224634
3358,486000	638,648300	-0,194928
3458,484000	638,274900	-0,234991
3561,460000	638,743200	-0,234241
3667,502000	638,457900	-0,204304
3776,701000	638,313100	-0,242561
3889,152000	638,058800	-0,212361
4004,951000	638,148700	-0,251022
4124,197000	638,350200	-0,257430
4246,995000	638,685900	-0,266494
4373,448000	638,213700	-0,269651
4503,667000	638,316700	-0,277409
4637,763000	638,256400	-0,259069
4775,852000	638,098300	-0,265717
4918,052000	637,748500	-0,255094
5064,486000	637,836400	-0,255893
5215,280000	637,824600	-0,285766
5370,564000	637,599700	-0,302437
5530,472000	638,144000	-0,261511
5695,141000	637,875200	-0,301786
5864,713000	638,146300	-0,297536
6039,334000	638,016900	-0,319908
6219,154000	638,491800	-0,317720
6404,328000	637,845200	-0,362410
6595,016000	637,661100	-0,348415
6791,381000	637,179200	-0,334967
6993,594000	637,168600	-0,304574
7201,827000	637,446600	-0,357352
7416,260000	637,239200	-0,362161
7637,078000	636,871500	-0,373933
7864,471000	637,281400	-0,385034
8098,634000	637,516500	-0,338509
8339,769000	637,154500	-0,375861
8588,085000	637,317700	-0,391851
8843,794000	636,920900	-0,393811
9107,116000	637,007000	-0,393520
9378,279000	636,888500	-0,394147
9657,516000	636,879300	-0,448270
9945,067000	637,142000	-0,425779
10241,179000	637,153400	-0,452879
10546,109000	636,963100	-0,444941
10860,117000	636,851300	-0,463669
11183,476000	637,181400	-0,472928
11516,462000	636,954400	-0,475374
11859,363000	636,329300	-0,477143
12212,473000	636,655600	-0,489454
12576,098000	636,183800	-0,488653
12950,549000	636,350600	-0,484015
13336,149000	636,478600	-0,518384
13733,231000	636,588700	-0,526689
14142,136000	635,595900	-0,542216
14563,215000	635,610800	-0,551000
14996,833000	635,973300	-0,531593
15443,361000	635,865100	-0,572334
15903,185000	635,870100	-0,590047
16376,699000	635,725000	-0,574413
16864,313000	636,035600	-0,585456
17366,445000	635,564000	-0,603221
17883,528000	635,949800	-0,600312
18416,007000	635,772500	-0,602688
18964,341000	635,719700	-0,631758
19529,001000	635,787700	-0,642499
20110,474000	635,596600	-0,669118
20709,260000	635,681700	-0,663772
21325,874000	635,904800	-0,673431
21960,849000	635,603300	-0,684713
22614,730000	635,260600	-0,715384
23288,079000	635,069300	-0,721312
23981,478000	634,982700	-0,753611
24695,523000	635,053900	-0,764154
25430,828000	634,769100	-0,761880
26188,027000	634,994200	-0,788594
26967,771000	634,826800	-0,778433
27770,732000	634,169400	-0,815193
28597,601000	633,866800	-0,828243
29449,090000	634,378300	-0,840246
30325,931000	634,257100	-0,862325
31228,881000	634,419100	-0,868649
32158,716000	634,053800	-0,888718
33116,236000	634,173500	-0,901465
34102,267000	633,950300	-0,912863
35117,656000	633,966000	-0,949604
36163,279000	633,250800	-0,948344
37240,034000	633,331200	-0,968622
38348,850000	633,256400	-0,970790
39490,681000	632,835000	-0,989218
40666,510000	632,797900	-1,038817
41877,348000	632,867800	-1,020931
43124,239000	631,890200	-1,049689
44408,257000	632,209400	-1,056003
45730,505000	631,806300	-1,076424
47092,123000	631,560200	-1,101165
48494,284000	631,796600	-1,118023
49938,193000	631,429400	-1,140027
51425,095000	631,073800	-1,146264
52956,268000	630,658000	-1,169284
54533,033000	630,854100	-1,191077
56156,745000	630,386500	-1,203100
57828,803000	630,136400	-1,237088
59550,646000	630,119800	-1,257483
61323,756000	629,554000	-1,258358
63149,661000	629,838700	-1,288311
65029,932000	629,463700	-1,302817
66966,188000	629,166200	-1,320906
68960,095000	629,172500	-1,341619
71013,370000	628,943000	-1,356050
73127,782000	628,800300	-1,363217
75305,149000	628,572100	-1,398889
77547,348000	628,268100	-1,417231
79856,307000	627,806800	-1,432295
82234,016000	627,589100	-1,450839
84682,520000	627,278500	-1,469377
87203,928000	627,211100	-1,487462
89800,411000	626,819000	-1,513514
92474,204000	627,007900	-1,539814
95227,608000	626,373100	-1,555354
98062,994000	625,866300	-1,576870
100982,804000	625,571000	-1,586799
103989,550000	625,114900	-1,619535
107085,822000	624,854900	-1,636210
110274,285000	624,378600	-1,659519
113557,684000	623,792200	-1,673411
116938,845000	623,517100	-1,690842
120420,680000	623,379000	-1,711158
124006,186000	623,257500	-1,727465
127698,450000	622,302500	-1,750889
131500,650000	622,223300	-1,773248
135416,061000	621,737800	-1,797425
139448,052000	621,508700	-1,816939
143600,094000	621,352400	-1,837502
147875,764000	621,039700	-1,863082
152278,740000	620,388200	-1,889098
156812,815000	620,285300	-1,911511
161481,891000	620,231000	-1,938863
166289,987000	619,757900	-1,959066
171241,245000	619,465500	-1,982556
176339,925000	618,862700	-2,005100
181590,417000	618,665700	-2,032107
186997,242000	618,545100	-2,059256
192565,054000	618,121800	-2,081170
198298,647000	617,644600	-2,106290
204202,957000	617,317700	-2,136208
210283,066000	616,868900	-2,158987
216544,210000	616,569600	-2,181655
222991,778000	616,483300	-2,212230
229631,322000	616,265300	-2,237036
236468,557000	615,894900	-2,265859
243509,369000	615,730800	-2,286113
250759,821000	615,192000	-2,319365
258226,153000	615,135000	-2,346122
265914,795000	614,507800	-2,373116
273832,364000	614,165500	-2,399473
281985,678000	613,543500	-2,425859
290381,755000	613,511500	-2,452280
299027,824000	613,134800	-2,487249
307931,329000	612,565400	-2,505119
317099,934000	612,395500	-2,538727
326541,532000	612,216400	-2,566116
336264,253000	611,552700	-2,595655
346276,466000	611,199200	-2,629421
356586,791000	610,483000	-2,660988
367204,104000	610,492900	-2,708822
378137,546000	609,882500	-2,749439
389396,529000	609,337600	-2,788415
400990,747000	608,789000	-2,834983
412930,181000	608,391000	-2,868581
425225,109000	608,220200	-2,909318
437886,117000	607,941300	-2,940089
450924,105000	607,777400	-2,966225
464350,296000	607,230000	-2,995896
478176,250000	607,037600	-3,009856
492413,869000	606,274400	-3,028435
507075,412000	606,051500	-3,033336
522173,499000	605,771500	-3,043257
537721,129000	605,812700	-3,043842
553731,688000	605,762500	-3,036685
570218,958000	605,875300	-3,016405
587197,134000	605,854700	-2,992886
604680,832000	605,791000	-2,967390
622685,105000	605,739000	-2,923772
641225,452000	605,713000	-2,867875
660317,834000	605,906700	-2,812195
679978,689000	606,547400	-2,744150
700224,943000	606,488000	-2,657127
721074,026000	606,353300	-2,561766
742543,887000	605,040200	-2,750240
764653,010000	602,296800	-3,240494
787420,428000	600,091700	-3,603887
810865,742000	598,508400	-3,761926
835009,136000	598,068700	-3,819585
859871,396000	597,695400	-3,874669
885473,926000	597,326200	-3,930579
911838,767000	597,035900	-3,969714
938988,617000	597,064900	-4,007689
966946,849000	596,688800	-4,046638
995737,533000	596,621000	-4,099112
1025385,455000	596,597800	-4,162667
1055916,138000	596,254400	-4,224391
1087355,868000	595,577300	-4,300846
1119731,711000	595,360700	-4,354758
1153071,539000	594,749800	-4,415740
1187404,055000	594,695900	-4,470294
1222758,816000	594,455400	-4,534948
1259166,259000	594,102200	-4,606106
1296657,728000	593,526900	-4,670847
1335265,499000	593,311000	-4,738077
1375022,811000	593,227000	-4,808451
1415963,890000	593,068400	-4,881381
1458123,982000	592,994400	-4,959473
1501539,385000	593,077100	-5,037950
1546247,474000	593,243600	-5,135639
1592286,739000	592,964100	-5,204955
1639696,815000	592,908900	-5,300098
1688518,519000	592,797200	-5,387693
1738793,881000	592,776700	-5,482314
1790566,184000	592,679400	-5,586643
1843879,998000	592,900800	-5,687910
1898781,223000	592,935200	-5,788397
1955317,122000	593,248700	-5,897219
2013536,369000	593,524800	-6,015104
2073489,084000	593,828600	-6,120973
2135226,882000	594,066600	-6,235943
2198802,912000	594,361500	-6,349706
2264271,908000	594,655300	-6,477150
2331690,233000	595,207200	-6,598010
2401115,927000	595,910100	-6,716147
2472608,760000	596,064900	-6,836898
2546230,280000	596,724800	-6,962619
2622043,870000	597,603900	-7,099851
2700114,796000	598,328900	-7,234445
2780510,271000	599,258200	-7,378413
2863299,508000	600,151800	-7,525991
2948553,782000	601,397100	-7,690405
3036346,487000	602,619900	-7,847184
3126753,206000	603,784500	-8,017658
3219851,770000	605,301500	-8,200056
3315722,328000	606,632600	-8,378000
3414447,417000	608,375200	-8,564417
3516112,029000	610,331400	-8,732291
3620803,688000	612,255900	-8,920547
3728612,524000	614,677900	-9,115495
3839631,351000	616,862700	-9,327491
3953955,745000	619,613600	-9,546030
4071684,128000	622,397700	-9,763865
4192917,856000	625,298200	-9,996394
4317761,297000	628,463600	-10,228220
4446321,932000	631,884600	-10,455380
4578710,438000	635,842500	-10,709270
4715040,791000	639,959500	-10,964330
4855430,357000	644,715800	-11,239790
5000000,000000	649,871400	-11,550520
