Time: 09:55; Datum: 22.07.2015
Sample Area [sqmm]: 0,000
Sample Thickness [mm]: 0,000
Voltage Level [V]: 0,010


F[Hz]		Z[Ohm]		Theta		Temperatur[°C]
60,000000	6181271,000000	-56,642430
61,724000	6909424,000000	-68,353690
63,497000	4062928,000000	-40,517730
65,322000	8809189,000000	-47,483790
67,198000	7281365,000000	-64,320500
69,129000	5539972,000000	-37,633580
71,115000	6949566,000000	-57,749310
73,159000	6568844,000000	-62,412120
75,261000	6956870,000000	-56,059650
77,423000	6900042,000000	-56,790360
79,647000	7116688,000000	-54,796970
81,936000	6658006,000000	-54,301120
84,290000	6654709,000000	-55,811300
86,712000	5863668,000000	-55,453690
89,203000	5945217,000000	-51,533450
91,766000	6029179,000000	-61,596220
94,403000	6499046,000000	-63,832000
97,115000	5927289,000000	-57,799580
99,905000	6175297,000000	-57,713570
102,776000	5455368,000000	-54,866910
105,729000	5214634,000000	-56,772210
108,766000	5234288,000000	-55,692800
111,891000	5578261,000000	-55,640500
115,106000	5117240,000000	-55,392560
118,413000	5066679,000000	-58,879910
121,815000	4952453,000000	-54,605430
125,315000	5038391,000000	-55,114540
128,916000	5223213,000000	-56,368770
132,620000	4478624,000000	-52,929650
136,430000	4793637,000000	-56,278910
140,350000	4412991,000000	-51,449440
144,383000	4209713,000000	-54,799900
148,531000	4543476,000000	-49,480550
152,798000	4610620,000000	-55,220650
157,189000	4999678,000000	-49,437860
161,705000	4461380,000000	-60,579870
166,351000	4478908,000000	-54,977490
171,130000	4009405,000000	-53,429970
176,047000	4101989,000000	-58,588770
181,105000	3908239,000000	-52,752600
186,309000	3987870,000000	-53,613750
191,662000	3923820,000000	-58,904740
197,168000	3822964,000000	-58,612580
202,833000	3606470,000000	-53,927990
208,661000	3724624,000000	-52,182330
214,656000	3404454,000000	-55,985020
220,824000	3511274,000000	-54,872770
227,168000	3436464,000000	-54,239860
233,695000	3446956,000000	-54,500450
240,409000	3387486,000000	-56,407940
247,317000	3396837,000000	-56,374110
254,423000	3220676,000000	-52,711230
261,733000	3044316,000000	-56,214670
269,252000	3188298,000000	-57,064790
276,989000	2916613,000000	-55,420460
284,947000	2915943,000000	-56,562770
293,134000	2917122,000000	-58,266180
301,556000	2887353,000000	-58,713490
310,220000	2764053,000000	-56,846970
319,133000	2672943,000000	-57,765740
328,302000	2625738,000000	-56,528370
337,735000	2720761,000000	-53,046320
347,439000	2724542,000000	-54,288130
357,421000	2680690,000000	-55,764890
367,690000	2507484,000000	-56,417330
378,255000	2561949,000000	-55,945560
389,123000	2500802,000000	-57,416620
400,303000	2438644,000000	-54,710640
411,804000	2413479,000000	-55,405620
423,636000	2311532,000000	-56,633040
435,807000	2354672,000000	-55,230380
448,329000	2427268,000000	-57,418480
461,210000	2303970,000000	-55,113880
474,461000	2163237,000000	-56,559560
488,093000	2246573,000000	-55,880310
502,117000	2127108,000000	-55,379740
516,543000	2080900,000000	-56,194200
531,384000	2057319,000000	-56,886280
546,652000	2025515,000000	-56,183300
562,358000	1985446,000000	-57,130260
578,516000	1952436,000000	-56,583850
595,137000	1940350,000000	-57,264240
612,236000	1890259,000000	-56,756210
629,827000	1844155,000000	-55,964980
647,923000	1694205,000000	-57,255500
666,538000	1838035,000000	-55,286810
685,689000	1773740,000000	-56,763690
705,390000	1723466,000000	-57,652350
725,657000	1685880,000000	-57,540620
746,506000	1684765,000000	-57,336240
767,954000	1616443,000000	-57,152000
790,019000	1605724,000000	-57,202550
812,717000	1607776,000000	-57,243110
836,068000	1517103,000000	-58,057610
860,090000	1525244,000000	-59,669750
884,801000	1501730,000000	-58,270150
910,223000	1474477,000000	-57,538930
936,375000	1455178,000000	-58,530060
963,278000	1402368,000000	-57,986520
990,955000	1376856,000000	-58,096370
1019,427000	1374828,000000	-58,042000
1048,716000	1333207,000000	-58,259140
1078,847000	1319190,000000	-58,208560
1109,844000	1300871,000000	-58,415220
1141,732000	1256193,000000	-59,020950
1174,536000	1252593,000000	-59,201710
1208,282000	1225278,000000	-58,508940
1242,998000	1202573,000000	-59,172660
1278,711000	1183847,000000	-59,096740
1315,450000	1171052,000000	-59,264060
1353,245000	1149812,000000	-58,939540
1392,126000	1119067,000000	-59,566200
1432,124000	1090921,000000	-59,123890
1473,271000	1090367,000000	-59,914940
1515,600000	1066309,000000	-59,632690
1559,145000	1047114,000000	-59,742760
1603,942000	1022339,000000	-59,437130
1650,026000	990404,600000	-58,977220
1697,434000	987060,800000	-60,166100
1746,203000	965421,400000	-60,019730
1796,374000	949583,700000	-60,448180
1847,987000	936750,300000	-59,999500
1901,083000	918401,400000	-60,366210
1955,704000	897112,100000	-60,721780
2011,894000	880335,400000	-60,539690
2069,699000	867243,500000	-60,934960
2129,164000	848506,900000	-60,956730
2190,338000	834615,900000	-60,861770
2253,270000	816221,400000	-61,276730
2318,010000	793512,500000	-60,861490
2384,610000	785212,300000	-61,624420
2453,123000	770480,800000	-61,439910
2523,605000	757107,400000	-61,563170
2596,112000	742969,600000	-61,872760
2670,703000	726878,600000	-62,029020
2747,436000	717936,100000	-61,839820
2826,374000	699924,100000	-61,983030
2907,580000	684435,900000	-62,237680
2991,119000	672593,500000	-61,858000
3077,059000	658451,300000	-62,365480
3165,467000	647725,400000	-62,655540
3256,416000	636468,700000	-62,642880
3349,978000	624803,300000	-62,795380
3446,228000	612886,200000	-62,870650
3545,243000	598700,800000	-63,025570
3647,103000	587322,900000	-62,693590
3751,890000	574491,900000	-63,409150
3859,687000	562605,900000	-63,346090
3970,582000	553469,300000	-63,547010
4084,663000	541546,400000	-63,560030
4202,022000	529848,200000	-63,806270
4322,752000	521859,800000	-63,876260
4446,951000	510566,800000	-63,882230
4574,719000	500358,400000	-64,016630
4706,158000	489390,200000	-64,306310
4841,373000	480751,000000	-64,273120
4980,473000	470937,700000	-64,455390
5123,569000	464478,900000	-64,309150
5270,777000	451209,600000	-64,718310
5422,215000	442731,600000	-64,825100
5578,003000	434403,800000	-64,971350
5738,268000	425460,400000	-65,061460
5903,137000	415924,000000	-65,099790
6072,743000	408277,300000	-65,283400
6247,222000	399548,600000	-65,369270
6426,714000	391642,600000	-65,645270
6611,363000	383745,600000	-65,814160
6801,318000	375420,600000	-65,825850
6996,730000	367892,300000	-65,975230
7197,757000	360648,200000	-65,990840
7404,559000	353219,200000	-66,123260
7617,304000	346527,900000	-66,219720
7836,160000	338868,600000	-66,336510
8061,305000	331362,500000	-66,538540
8292,919000	324531,200000	-66,638580
8531,187000	317471,400000	-66,782350
8776,301000	310521,400000	-66,736850
9028,457000	304129,500000	-66,937400
9287,859000	298281,200000	-67,066190
9554,713000	291882,800000	-67,198720
9829,234000	285903,000000	-67,273150
10111,643000	279717,400000	-67,393680
10402,166000	273368,800000	-67,517690
10701,036000	267928,800000	-67,651870
11008,493000	262466,500000	-67,763390
11324,784000	256729,200000	-67,839090
11650,162000	251292,600000	-67,897640
11984,889000	245943,000000	-68,011510
12329,233000	240621,900000	-68,206520
12683,471000	235725,600000	-68,299340
13047,886000	229894,600000	-68,296210
13422,772000	225587,800000	-68,568590
13808,428000	220582,300000	-68,577710
14205,166000	215259,600000	-68,677510
14613,302000	211273,900000	-68,830500
15033,164000	207073,500000	-68,828450
15465,090000	202249,800000	-68,958670
15909,425000	197834,700000	-69,141370
16366,527000	193343,400000	-69,250920
16836,762000	189195,600000	-69,304610
17320,508000	185211,300000	-69,384660
17818,153000	181171,400000	-69,519000
18330,095000	177310,400000	-69,627720
18856,747000	173429,600000	-69,703190
19398,530000	169510,800000	-69,774160
19955,879000	165862,500000	-69,915400
20529,242000	162169,400000	-69,962750
21119,078000	158547,700000	-70,065510
21725,861000	155036,400000	-70,178930
22350,078000	151538,100000	-70,300630
22992,230000	148204,400000	-70,312830
23652,832000	145060,200000	-70,510600
24332,414000	141836,600000	-70,577680
25031,521000	138755,300000	-70,675700
25750,714000	135532,300000	-70,724170
26490,572000	132533,300000	-70,809710
27251,686000	129702,600000	-70,932400
28034,668000	126784,400000	-71,004650
28840,147000	123906,200000	-71,048610
29668,768000	121071,900000	-71,193980
30521,197000	118445,900000	-71,227530
31398,118000	115971,900000	-71,416210
32300,233000	113192,900000	-71,417270
33228,268000	110605,600000	-71,498690
34182,967000	108176,700000	-71,580800
35165,095000	105688,400000	-71,681980
36175,442000	103325,100000	-71,748040
37214,817000	101031,000000	-71,873470
38284,056000	98677,450000	-71,913740
39384,015000	96468,710000	-71,990260
40515,578000	94293,550000	-72,059490
41679,652000	92155,980000	-72,145050
42877,171000	90102,990000	-72,235520
44109,098000	88068,570000	-72,312320
45376,419000	86063,950000	-72,391570
46680,153000	84116,150000	-72,489460
48021,344000	82191,620000	-72,546190
49401,071000	80325,700000	-72,602560
50820,439000	78468,520000	-72,677670
52280,587000	76697,800000	-72,785680
53782,688000	74937,610000	-72,811250
55327,946000	73237,600000	-72,892510
56917,602000	71563,560000	-73,001950
58552,932000	69912,950000	-73,049880
60235,246000	68304,820000	-73,124950
61965,896000	66717,800000	-73,187520
63746,271000	65203,700000	-73,265800
65577,798000	63702,230000	-73,319170
67461,948000	62258,340000	-73,400880
69400,232000	60800,640000	-73,461760
71394,207000	59398,200000	-73,549970
73445,471000	58046,150000	-73,591380
75555,671000	56725,500000	-73,656090
77726,500000	55404,540000	-73,722540
79959,701000	54118,450000	-73,787800
82257,064000	52864,430000	-73,856510
84620,435000	51644,250000	-73,907230
87051,709000	50444,140000	-73,978630
89552,837000	49290,020000	-74,028500
92125,826000	48139,600000	-74,099760
94772,741000	47010,430000	-74,180690
97495,706000	45937,200000	-74,266490
100296,906000	44864,960000	-74,280100
103178,588000	43805,620000	-74,345290
106143,066000	42828,980000	-74,376340
109192,718000	41811,970000	-74,459620
112329,990000	40828,020000	-74,527500
115557,402000	39870,980000	-74,601260
118877,542000	38948,180000	-74,633390
122293,074000	38031,970000	-74,698630
125806,740000	37137,440000	-74,747800
129421,359000	36270,570000	-74,779560
133139,832000	35411,710000	-74,842060
136965,141000	34587,750000	-74,911800
140900,358000	33781,070000	-74,964450
144948,640000	32998,140000	-75,011380
149113,234000	32221,510000	-75,074220
153397,484000	31467,320000	-75,134740
157804,827000	30726,210000	-75,184350
162338,800000	30007,990000	-75,239910
167003,041000	29300,310000	-75,273960
171801,292000	28608,440000	-75,332250
176737,404000	27937,380000	-75,389340
181815,338000	27280,990000	-75,447650
187039,170000	26644,630000	-75,492000
192413,089000	26004,800000	-75,542390
197941,410000	25393,220000	-75,584460
203628,568000	24796,050000	-75,636800
209479,126000	24210,780000	-75,696070
215497,780000	23636,800000	-75,727290
221689,359000	23082,040000	-75,780870
228058,831000	22532,310000	-75,829860
234611,308000	21996,250000	-75,880710
241352,048000	21479,330000	-75,932610
248286,459000	20975,340000	-75,971100
255420,106000	20476,170000	-76,021140
262758,714000	19989,170000	-76,049620
270308,172000	19515,250000	-76,097510
278074,537000	19056,910000	-76,152950
286064,041000	18606,940000	-76,217860
294283,096000	18159,490000	-76,251720
302738,296000	17729,550000	-76,303440
311436,428000	17308,170000	-76,328430
320384,470000	16899,740000	-76,383540
329589,603000	16504,280000	-76,425160
339059,214000	16109,360000	-76,458340
348800,900000	15721,460000	-76,494170
358822,480000	15350,450000	-76,544210
369131,996000	14985,880000	-76,582140
379737,719000	14634,140000	-76,597100
390648,161000	14282,900000	-76,669520
401872,077000	13948,120000	-76,718140
413418,473000	13612,230000	-76,763310
425296,614000	13287,010000	-76,809460
437516,033000	12968,630000	-76,852990
450086,533000	12659,140000	-76,897360
463018,204000	12353,080000	-76,921990
476321,421000	12069,400000	-76,969370
490006,860000	11782,900000	-77,026370
504085,502000	11501,140000	-77,061120
518568,645000	11222,830000	-77,113370
533467,910000	10962,780000	-77,139440
548795,254000	10701,430000	-77,200730
564562,977000	10444,390000	-77,226170
580783,729000	10197,310000	-77,286350
597470,529000	9952,771000	-77,309230
614636,766000	9718,725000	-77,363730
632296,215000	9488,783000	-77,401930
650463,046000	9265,576000	-77,442600
669151,838000	9041,693000	-77,491770
688377,588000	8827,397000	-77,536870
708155,723000	8619,478000	-77,587230
728502,114000	8416,981000	-77,630500
749433,087000	8216,886000	-77,674290
770965,439000	8021,510000	-77,724590
793116,448000	7829,987000	-77,780170
815903,890000	7645,029000	-77,823870
839346,049000	7465,441000	-77,875430
863461,737000	7289,362000	-77,908250
888270,306000	7116,982000	-77,956790
913791,663000	6949,145000	-78,003590
940046,286000	6785,767000	-78,056630
967055,246000	6626,527000	-78,106580
994840,213000	6470,114000	-78,159190
1023423,485000	6318,433000	-78,207950
1052827,998000	6168,353000	-78,264550
1083077,347000	6025,049000	-78,324850
1114195,806000	5880,587000	-78,201500
1146208,346000	5744,448000	-78,202640
1179140,654000	5606,137000	-78,262300
1213019,158000	5481,093000	-78,317310
1247871,043000	5349,311000	-78,355010
1283724,275000	5226,471000	-78,419310
1320607,626000	5104,495000	-78,413770
1358550,691000	4986,209000	-78,524940
1397583,918000	4872,596000	-78,522220
1437738,629000	4764,223000	-78,610890
1479047,046000	4651,597000	-78,703360
1521542,316000	4542,843000	-78,750370
1565258,540000	4443,646000	-78,783230
1610230,798000	4340,571000	-78,910220
1656495,177000	4243,699000	-78,935300
1704088,802000	4144,824000	-79,027890
1753049,865000	4053,298000	-79,057850
1803417,653000	3959,458000	-79,205900
1855232,584000	3873,564000	-79,211110
1908536,237000	3788,190000	-79,262050
1963371,385000	3700,113000	-79,329280
2019782,030000	3621,501000	-79,421860
2077813,439000	3542,581000	-79,523340
2137512,178000	3465,058000	-79,604770
2198926,153000	3391,856000	-79,693410
2262104,645000	3318,182000	-79,767340
2327098,351000	3246,837000	-79,860030
2393959,425000	3176,790000	-79,935870
2462741,519000	3109,737000	-80,044560
2533499,828000	3044,919000	-80,134010
2606291,130000	2982,424000	-80,234140
2681173,837000	2921,813000	-80,346090
2758208,038000	2862,630000	-80,467470
2837455,549000	2802,531000	-80,574760
2918979,961000	2748,527000	-80,691350
3002846,693000	2694,386000	-80,809090
3089123,045000	2642,016000	-80,948720
3177878,247000	2592,602000	-81,079380
3269183,521000	2543,345000	-81,211880
3363112,134000	2496,302000	-81,362590
3459739,459000	2451,770000	-81,522230
3559143,034000	2407,783000	-81,701100
3661402,625000	2365,655000	-81,858020
3766600,290000	2325,113000	-82,024950
3874820,443000	2286,221000	-82,227620
3986149,926000	2248,912000	-82,393010
4100678,074000	2215,056000	-82,629830
4218496,791000	2180,340000	-82,793690
4339700,617000	2149,406000	-83,044270
4464386,815000	2117,983000	-83,259480
4592655,436000	2089,142000	-83,488540
4724609,410000	2062,329000	-83,769270
4860354,622000	2036,809000	-84,044100
5000000,000000	2014,055000	-84,335130
