Time: 18:42; Datum: 17.07.2015
Sample Area [sqmm]: 0,000
Sample Thickness [mm]: 0,000
Voltage Level [V]: 0,010


F[Hz]		Z[Ohm]		Theta		Temperatur[°C]
40,000000	25048,900000	143,311100
41,191000	20864,190000	130,616200
42,417000	20497,260000	130,903000
43,680000	20174,630000	131,208500
44,981000	20023,440000	129,518100
46,320000	20714,350000	130,366300
47,699000	21979,410000	132,442700
49,120000	24217,650000	138,520300
50,582000	27904,040000	152,896100
52,088000	28293,680000	176,524800
53,639000	23628,020000	-159,848900
55,236000	20120,890000	-148,586900
56,881000	20141,640000	-149,002100
58,575000	19771,930000	-150,242500
60,319000	19953,320000	-151,477900
62,115000	19937,760000	-152,673900
63,964000	19643,640000	-154,099000
65,869000	19414,330000	-155,543300
67,830000	19556,210000	-156,542200
69,849000	19139,150000	-158,664100
71,929000	18957,350000	-159,414200
74,071000	18960,070000	-160,051100
76,276000	18730,710000	-160,209000
78,547000	18611,540000	-160,875000
80,886000	18613,700000	-161,064300
83,295000	18466,210000	-161,730000
85,775000	18325,060000	-162,256300
88,329000	18547,910000	-162,589400
90,959000	18339,290000	-162,717600
93,667000	18434,150000	-162,759400
96,456000	18440,980000	-162,687400
99,328000	18452,200000	-162,903900
102,285000	18744,660000	-162,772400
105,331000	18470,710000	-162,438100
108,467000	18451,040000	-163,953600
111,697000	18462,310000	-164,104100
115,022000	18439,180000	-164,008600
118,447000	18428,460000	-164,713100
121,974000	18499,730000	-164,411300
125,606000	18367,430000	-164,297200
129,345000	18279,970000	-164,141700
133,197000	18409,560000	-164,012900
137,163000	18186,910000	-164,173800
141,247000	18450,590000	-164,621800
145,452000	18488,050000	-164,573000
149,783000	18465,210000	-164,300500
154,243000	18302,070000	-164,760700
158,835000	18293,280000	-164,298700
163,565000	18318,550000	-149,139000
168,435000	18315,430000	-149,429500
173,450000	18125,150000	-150,052100
178,614000	18245,310000	-150,761700
183,932000	18295,260000	-150,721400
189,409000	18329,030000	-151,076500
195,049000	18488,800000	-151,617800
200,856000	18480,880000	-152,006300
206,837000	18318,720000	-152,667100
212,995000	18353,170000	-153,418500
219,337000	18406,320000	-153,949000
225,868000	18312,020000	-154,429700
232,593000	18378,830000	-155,772400
239,518000	18298,910000	-155,507200
246,650000	18313,430000	-155,845800
253,994000	18359,030000	-156,866700
261,557000	18380,250000	-157,220000
269,344000	18065,140000	-157,485200
277,364000	18011,660000	-158,403200
285,623000	18049,990000	-159,532000
294,127000	18102,840000	-159,927300
302,884000	17974,250000	-161,184300
311,903000	18119,040000	-161,549100
321,190000	17902,710000	-161,943800
330,753000	17983,820000	-163,170900
340,601000	17980,450000	-163,667100
350,742000	17835,940000	-164,373800
361,186000	17777,750000	-165,259100
371,940000	17765,250000	-166,137700
383,014000	17802,470000	-166,772000
394,419000	17916,390000	-167,042300
406,162000	17846,360000	-167,936700
418,256000	17853,170000	-168,230200
430,709000	17765,900000	-168,911300
443,534000	17825,930000	-169,429200
456,740000	17837,790000	-170,597600
470,339000	17769,670000	-170,559300
484,343000	17671,080000	-171,694600
498,765000	17829,720000	-171,958000
513,615000	17789,620000	-172,471800
528,908000	17766,850000	-172,963200
544,656000	17833,530000	-174,082600
560,873000	17646,530000	-174,127400
577,573000	17640,720000	-174,962600
594,770000	17652,130000	-174,663200
612,480000	17756,230000	-174,932300
630,716000	17670,800000	-174,837100
649,495000	17667,210000	-175,167300
668,834000	17735,090000	-175,525800
688,749000	17622,960000	-175,431400
709,256000	17764,300000	-175,730600
730,374000	17758,350000	-176,360200
752,121000	17691,280000	-175,897100
774,515000	17698,420000	-176,428700
797,576000	17718,840000	-176,547400
821,324000	17750,230000	-176,914300
845,778000	17711,590000	-177,082400
870,961000	17661,000000	-177,460200
896,894000	17677,580000	-176,970200
923,599000	17330,780000	-140,688900
951,099000	17164,180000	-140,511600
979,418000	17104,100000	-140,448400
1008,580000	17229,060000	-141,403300
1038,610000	17329,740000	-141,912300
1069,534000	17157,730000	-142,035300
1101,380000	17257,710000	-142,735700
1134,173000	17321,390000	-143,322300
1167,943000	17694,630000	-144,013400
1202,718000	17531,640000	-144,136900
1238,529000	17568,710000	-144,622500
1275,406000	17606,340000	-145,716300
1313,381000	17538,910000	-145,491200
1352,487000	17505,810000	-146,180200
1392,757000	17585,900000	-147,001000
1434,226000	17583,660000	-146,796200
1476,930000	17544,160000	-147,139100
1520,905000	17474,240000	-148,104700
1566,190000	17539,290000	-147,744500
1612,823000	17511,160000	-147,587500
1660,844000	17577,290000	-147,650500
1710,296000	17553,170000	-147,833300
1761,219000	17444,210000	-147,875100
1813,659000	17505,100000	-148,842600
1867,661000	17455,120000	-148,405900
1923,270000	17451,580000	-148,680600
1980,535000	17380,420000	-149,254000
2039,505000	17352,260000	-149,232700
2100,231000	17342,050000	-149,227700
2162,765000	17331,810000	-149,635300
2227,161000	17250,500000	-149,876000
2293,475000	17152,550000	-149,291900
2361,762000	17197,570000	-150,002100
2432,084000	17062,240000	-149,979400
2504,498000	16967,680000	-149,515200
2579,070000	16991,210000	-150,009100
2655,861000	16889,650000	-149,824300
2734,939000	16786,230000	-149,200500
2816,371000	16628,840000	-149,067400
2900,228000	16584,390000	-149,363500
2986,582000	16436,890000	-148,513300
3075,507000	16282,990000	-148,671300
3167,080000	16209,290000	-147,494900
3261,379000	16085,330000	-148,087100
3358,486000	15940,330000	-147,528500
3458,484000	15847,850000	-147,930800
3561,460000	15682,380000	-147,087000
3667,502000	15535,850000	-147,587600
3776,701000	15373,580000	-146,651900
3889,152000	15273,570000	-145,714800
4004,951000	15085,990000	-146,213900
4124,197000	14941,260000	-145,617000
4246,995000	14775,340000	-145,801300
4373,448000	14651,070000	-145,015000
4503,667000	14436,300000	-145,342100
4637,763000	14267,470000	-144,351900
4775,852000	14096,150000	-144,426800
4918,052000	13903,510000	-143,917600
5064,486000	13676,170000	-144,227300
5215,280000	13486,910000	-143,358000
5370,564000	13283,100000	-142,491600
5530,472000	13104,470000	-142,228200
5695,141000	12874,990000	-141,194600
5864,713000	12700,660000	-141,542300
6039,334000	12489,460000	-140,909000
6219,154000	12264,210000	-141,038900
6404,328000	12067,530000	-140,132200
6595,016000	11863,630000	-139,827500
6791,381000	11645,670000	-139,015900
6993,594000	11391,810000	-139,196900
7201,827000	11200,600000	-138,369500
7416,260000	10982,420000	-137,790000
7637,078000	10756,710000	-137,772700
7864,471000	10568,790000	-137,090000
8098,634000	10371,320000	-137,517800
8339,769000	10194,520000	-136,427700
8588,085000	9979,856000	-136,840600
8843,794000	9739,689000	-136,129200
9107,116000	9702,509000	-115,742600
9378,279000	9501,943000	-116,005600
9657,516000	9304,596000	-115,378800
9945,067000	9090,395000	-115,618900
10241,179000	8925,915000	-115,504900
10546,109000	8733,851000	-115,137200
10860,117000	8534,521000	-115,065300
11183,476000	8348,354000	-114,900900
11516,462000	8164,557000	-115,238200
11859,363000	7973,646000	-115,178200
12212,473000	7808,142000	-114,946400
12576,098000	7616,458000	-115,542100
12950,549000	7423,847000	-115,900000
13336,149000	7241,602000	-115,969800
13733,231000	7052,424000	-116,261700
14142,136000	6883,873000	-116,192000
14563,215000	6706,844000	-116,878500
14996,833000	6526,992000	-116,667400
15443,361000	6355,844000	-116,662300
15903,185000	6240,308000	-116,698500
16376,699000	6027,081000	-116,611700
16864,313000	5872,101000	-117,154700
17366,445000	5709,524000	-117,137600
17883,528000	5544,333000	-117,731600
18416,007000	5407,487000	-117,224100
18964,341000	5244,698000	-117,792400
19529,001000	5120,160000	-118,518200
20110,474000	4971,119000	-118,982000
20709,260000	4863,312000	-119,130400
21325,874000	4724,681000	-119,274700
21960,849000	4580,458000	-119,872600
22614,730000	4496,384000	-121,175100
23288,079000	4348,627000	-121,808800
23981,478000	4254,666000	-122,132300
24695,523000	4120,761000	-122,699400
25430,828000	4005,698000	-123,938200
26188,027000	3915,704000	-124,278800
26967,771000	3781,782000	-124,937600
27770,732000	3691,320000	-125,258000
28597,601000	3564,931000	-125,863600
29449,090000	3453,790000	-127,155100
30325,931000	3355,767000	-127,989500
31228,881000	3285,437000	-129,020500
32158,716000	3231,889000	-129,549600
33116,236000	3121,952000	-130,909400
34102,267000	3048,987000	-131,924300
35117,656000	2940,600000	-133,177500
36163,279000	2871,343000	-134,236500
37240,034000	2800,473000	-135,348200
38348,850000	2728,086000	-136,453200
39490,681000	2658,453000	-137,511200
40666,510000	2555,438000	-138,748200
41877,348000	2490,257000	-139,814000
43124,239000	2425,821000	-140,885300
44408,257000	2322,612000	-127,466900
45730,505000	2226,391000	-128,527700
47092,123000	2159,921000	-129,272700
48494,284000	2141,392000	-145,072800
49938,193000	2084,670000	-145,951500
51425,095000	2060,303000	-60,900420
52956,268000	2033,926000	-63,111590
54533,033000	2033,518000	-64,751830
56156,745000	1996,844000	-66,696410
57828,803000	1946,107000	-68,151890
59550,646000	1913,330000	-70,709350
61323,756000	1882,326000	-73,825680
63149,661000	1849,586000	-75,729620
65029,932000	1817,143000	-77,625380
66966,188000	1747,781000	-79,963150
68960,095000	1713,481000	-82,559840
71013,370000	1657,856000	-84,702950
73127,782000	1580,075000	-73,616030
75305,149000	1505,529000	-75,565150
77547,348000	1461,230000	-77,535050
79856,307000	1403,987000	-79,684560
82234,016000	1362,465000	-96,448270
84682,520000	1314,216000	-98,845670
87203,928000	1283,009000	-102,430300
89800,411000	1200,102000	-88,439770
92474,204000	1145,774000	-90,148330
95227,608000	1105,180000	-92,300820
98062,994000	1046,422000	-125,617200
100982,804000	1023,712000	-126,051800
103989,550000	998,912400	-128,265300
107085,822000	971,188700	-129,091900
110274,285000	934,773400	-114,967400
113557,684000	904,623500	-116,648900
116938,845000	883,501300	-117,417000
120420,680000	872,511700	-132,638100
124006,186000	856,851200	-133,415400
127698,450000	824,378400	-134,481200
131500,650000	804,864000	-134,911800
135416,061000	779,252600	-135,624600
139448,052000	758,311900	-137,389500
143600,094000	733,352400	-138,069600
147875,764000	694,076000	-124,682500
152278,740000	664,221900	-126,053300
156812,815000	648,032800	-127,696000
161481,891000	653,208500	-143,663300
166289,987000	634,776900	-145,080800
171241,245000	621,919100	-147,408700
176339,925000	617,304800	-148,260200
181590,417000	575,525600	-64,013480
186997,242000	556,846400	-65,436180
192565,054000	543,852300	-67,337690
198298,647000	526,667000	-68,745770
204202,957000	512,606000	-71,226420
210283,066000	504,925000	-74,264490
216544,210000	497,534400	-76,308220
222991,778000	482,627500	-65,965210
229631,322000	468,387700	-68,433980
236468,557000	453,505500	-70,972310
243509,369000	444,324400	-88,073450
250759,821000	431,523900	-90,239040
258226,153000	415,918400	-94,052570
265914,795000	397,552600	-97,074870
273832,364000	379,019300	-99,954150
281985,678000	359,272200	-105,288900
290381,755000	354,835600	-106,506400
299027,824000	348,075400	-108,145000
307931,329000	338,693300	-109,477600
317099,934000	331,010900	-111,169400
326541,532000	333,101400	-126,590700
336264,253000	328,297300	-127,339500
346276,466000	315,193700	-129,661500
356586,791000	313,058500	-131,494400
367204,104000	303,358600	-133,100800
378137,546000	295,593300	-134,129300
389396,529000	282,513500	-135,282300
400990,747000	276,881300	-137,913700
412930,181000	267,060200	-139,008300
425225,109000	258,674400	-141,652200
437886,117000	241,272300	-129,263800
450924,105000	231,285000	-130,460300
464350,296000	231,552300	-133,433500
478176,250000	232,808900	-136,115900
492413,869000	240,967800	-153,743100
507075,412000	241,302400	-156,189100
522173,499000	224,021600	-75,674480
537721,129000	222,111100	-77,985450
553731,688000	214,660600	-81,734920
570218,958000	213,044100	-84,880170
587197,134000	203,921300	-87,718560
604680,832000	199,365700	-91,264240
622685,105000	189,519200	-94,499790
641225,452000	182,231700	-97,409420
660317,834000	170,605100	-85,780650
679978,689000	163,238300	-89,311870
700224,943000	155,258700	-91,259650
721074,026000	157,749300	-137,029300
742543,887000	153,914600	-138,023300
764653,010000	149,904400	-140,517200
787420,428000	145,541600	-141,911300
810865,742000	142,660800	-141,897300
835009,136000	140,012800	-144,801000
859871,396000	134,071400	-133,115400
885473,926000	132,775400	-134,685500
911838,767000	128,085900	-136,240400
938988,617000	125,874000	-139,485500
966946,849000	124,757000	-156,590300
995737,533000	121,222900	-158,493600
1025385,455000	117,501100	-161,117600
1055916,138000	108,918300	-76,599460
1087355,868000	104,648200	-77,463080
1119731,711000	58,779810	-77,139710
1153071,539000	57,343780	-78,685850
1187404,055000	56,050390	-80,754400
1222758,816000	54,716710	-82,803300
1259166,259000	54,353550	-85,104640
1296657,728000	52,446210	-87,268650
1335265,499000	51,535530	-76,544470
1375022,811000	49,756790	-79,525650
1415963,890000	49,163360	-81,903340
1458123,982000	26,882500	-99,548670
1501539,385000	26,229930	-101,916200
1546247,474000	26,087500	-104,455600
1592286,739000	25,979010	-106,143000
1639696,815000	25,868740	-109,773900
1688518,519000	25,388260	-111,709000
1738793,881000	24,566060	-114,645200
1790566,184000	24,062990	-117,424500
1843879,998000	23,711440	-119,443200
1898781,223000	23,052950	-121,923100
1955317,122000	22,429410	-124,453000
2013536,369000	22,160590	-125,636000
2073489,084000	21,921830	-128,452500
2135226,882000	22,133780	-132,517000
2198802,912000	22,040920	-134,713100
2264271,908000	23,619550	-77,614990
2331690,233000	23,807990	-81,088170
2401115,927000	23,933020	-84,981540
2472608,760000	23,702840	-88,903610
2546230,280000	23,793910	-92,438760
2622043,870000	23,241490	-95,849360
2700114,796000	23,155120	-99,053940
2780510,271000	22,410900	-102,405200
2863299,508000	22,002730	-104,584800
2948553,782000	21,262290	-107,003800
3036346,487000	21,498200	-93,092380
3126753,206000	21,530910	-93,616260
3219851,770000	21,587020	-93,851640
3315722,328000	21,687530	-95,135340
3414447,417000	21,758110	-95,584140
3516112,029000	21,878210	-96,532960
3620803,688000	22,080980	-96,744850
3728612,524000	22,204070	-96,913870
3839631,351000	22,289340	-98,209930
3953955,745000	22,458110	-98,805390
4071684,128000	22,616880	-99,362500
4192917,856000	22,788940	-99,877720
4317761,297000	23,063480	-100,020400
4446321,932000	23,125540	-100,964900
4578710,438000	23,428500	-101,095300
4715040,791000	23,594710	-101,884200
4855430,357000	23,862410	-102,384100
5000000,000000	24,181140	-102,769100
